# Time (s),Ang (°),Vel (°/s)
0.000,172.771,-0.511
0.017,172.741,-0.466
0.033,172.768,-0.647
0.050,172.738,-0.606
0.067,172.758,-0.769
0.083,172.677,-0.732
0.100,172.695,-0.879
0.117,172.621,-0.846
0.133,172.638,-0.978
0.150,172.571,-0.948
0.167,172.586,-1.067
0.183,172.525,-1.040
0.200,172.539,-1.144
0.217,172.485,-1.351
0.233,172.497,-1.353
0.250,172.448,-1.529
0.267,172.459,-1.368
0.283,172.415,-1.526
0.300,172.425,-1.366
0.317,172.385,-1.508
0.333,172.394,-1.364
0.350,172.360,-1.491
0.367,172.318,-1.362
0.383,172.287,-1.477
0.400,172.249,-1.360
0.417,172.221,-1.464
0.433,172.187,-1.358
0.450,172.166,-1.452
0.467,172.135,-1.357
0.483,172.116,-1.441
0.500,172.089,-1.356
0.517,172.071,-1.431
0.533,172.047,-1.358
0.550,172.031,-1.276
0.567,172.009,-1.210
0.583,171.995,-1.136
0.600,171.975,-1.077
0.617,171.963,-1.010
0.633,171.945,-0.969
0.650,171.933,-1.234
0.667,171.917,-1.197
0.683,171.907,-1.286
0.700,171.892,-1.242
0.717,171.883,-1.644
0.733,171.870,-1.605
0.750,171.862,-1.967
0.767,171.850,-1.932
0.783,171.843,-2.273
0.800,171.724,-2.241
0.817,171.717,-2.549
0.833,171.660,-2.520
0.850,171.658,-2.631
0.867,171.499,-2.621
0.883,171.496,-2.557
0.900,171.353,-2.548
0.917,171.351,-2.490
0.933,171.217,-2.482
0.950,171.216,-2.430
0.967,171.095,-2.423
0.983,171.093,-2.051
1.000,171.040,-2.031
1.017,171.033,-1.846
1.033,171.040,-1.838
1.050,171.034,-1.349
1.067,171.040,-1.342
1.083,171.035,-0.888
1.100,171.040,-0.882
1.117,171.035,-0.297
1.133,171.040,-0.292
1.150,171.040,0.234
1.167,171.045,0.238
1.183,171.045,0.546
1.200,171.049,0.416
1.217,171.049,0.530
1.233,171.057,0.414
1.250,171.057,0.354
1.267,171.118,-0.063
1.283,171.118,-0.117
1.300,171.173,-0.356
1.317,171.173,-0.567
1.333,171.222,-0.633
1.350,171.172,-0.360
1.367,171.217,-0.257
1.383,171.172,0.001
1.400,171.158,0.082
1.417,171.013,0.458
1.433,171.001,0.523
1.450,170.916,0.700
1.467,170.851,0.761
1.483,170.829,0.933
1.500,170.925,0.675
1.517,170.959,0.839
1.533,171.049,0.756
1.550,171.076,0.904
1.567,171.210,0.978
1.583,171.232,1.273
1.600,171.352,1.652
1.617,171.372,1.925
1.633,171.484,2.130
1.650,171.398,2.538
1.667,171.502,2.559
1.683,171.424,2.140
1.700,171.518,1.996
1.717,171.498,1.607
1.733,171.582,1.481
1.750,171.564,0.956
1.767,171.643,0.702
1.783,171.626,0.230
1.800,171.697,0.006
1.817,171.682,-0.436
1.833,171.638,-0.321
1.850,171.625,-0.878
1.867,171.585,-0.774
1.883,171.570,-1.272
1.900,171.529,-1.316
1.917,171.466,-1.898
1.933,171.429,-1.938
1.950,171.374,-2.457
1.967,171.339,-2.491
1.983,171.291,-2.958
2.000,171.209,-2.988
2.017,171.166,-3.087
2.033,171.094,-3.101
2.050,171.059,-3.190
2.067,170.949,-3.194
2.083,170.918,-3.246
2.100,170.824,-2.955
2.117,170.796,-3.001
2.133,170.711,-2.439
2.150,170.686,-2.475
2.167,170.609,-1.974
2.183,170.591,-1.857
2.200,170.521,-1.260
2.217,170.505,-1.158
2.233,170.447,-0.486
2.250,170.481,-0.566
2.267,170.428,0.039
2.283,170.561,-0.052
2.300,170.514,0.491
2.317,170.633,0.409
2.333,170.590,0.898
2.350,170.746,0.834
2.367,170.708,1.276
2.383,170.897,1.219
2.400,170.761,1.463
2.417,170.931,1.559
2.433,170.806,1.339
2.450,170.960,1.571
2.467,170.847,0.735
2.483,170.985,0.944
2.500,170.887,-0.111
2.517,171.016,-0.247
2.533,170.928,-1.505
2.550,170.993,-2.206
2.567,170.966,-4.202
2.583,170.927,-5.433
2.600,170.952,-7.572
2.617,170.806,-9.295
2.633,170.828,-11.997
2.650,170.596,-13.772
2.667,170.508,-16.690
2.683,170.245,-18.350
2.700,169.973,-21.301
2.717,169.497,-22.939
2.733,168.950,-26.219
2.750,168.407,-28.084
2.767,167.708,-31.823
2.783,166.961,-34.542
2.800,166.257,-38.223
2.817,165.422,-41.196
2.833,164.770,-44.644
2.850,163.916,-47.339
2.867,163.281,-50.495
2.883,162.253,-52.733
2.900,161.605,-55.352
2.917,160.319,-56.677
2.933,159.438,-59.145
2.950,158.065,-60.085
2.967,157.096,-61.919
2.983,155.714,-62.681
3.000,154.728,-64.213
3.017,153.413,-65.063
3.033,152.395,-66.615
3.050,151.046,-67.476
3.067,150.057,-68.312
3.083,148.692,-69.426
3.100,147.680,-68.952
3.117,146.321,-69.501
3.133,145.363,-69.319
3.150,144.017,-69.690
3.167,143.083,-69.397
3.183,141.711,-69.926
3.200,140.790,-69.734
3.217,139.483,-70.556
3.233,138.463,-70.446
3.250,137.335,-71.520
3.267,136.271,-71.287
3.283,134.959,-72.420
3.300,133.866,-71.891
3.317,132.582,-72.753
3.333,131.419,-72.224
3.350,130.169,-73.163
3.367,128.876,-72.644
3.383,127.564,-73.603
3.400,126.218,-72.931
3.417,124.930,-73.352
3.433,123.540,-73.168
3.450,122.357,-73.241
3.467,121.112,-72.455
3.483,119.943,-72.181
3.500,118.695,-71.433
3.517,117.496,-70.238
3.533,116.255,-69.596
3.550,115.172,-67.920
3.567,114.012,-66.763
3.583,112.946,-64.837
3.600,111.857,-63.516
3.617,110.807,-61.090
3.633,109.806,-59.633
3.650,108.771,-57.561
3.667,108.007,-56.017
3.683,106.970,-53.871
3.700,106.236,-52.041
3.717,105.310,-49.902
3.733,104.605,-48.403
3.750,103.758,-46.224
3.767,103.176,-44.600
3.783,102.480,-42.505
3.800,101.925,-40.856
3.817,101.270,-38.946
3.833,100.738,-36.981
3.850,100.149,-35.740
3.867,99.621,-33.743
3.883,99.038,-32.632
3.900,98.604,-30.729
3.917,98.079,-29.581
3.933,97.689,-27.864
3.950,97.188,-26.970
3.967,96.824,-25.623
3.983,96.444,-24.564
4.000,96.094,-23.297
4.017,95.722,-22.056
4.033,95.359,-20.944
4.050,95.067,-19.710
4.067,94.745,-18.549
4.083,94.470,-17.531
4.100,94.186,-16.486
4.117,93.939,-15.570
4.133,93.737,-14.704
4.150,93.505,-13.810
4.167,93.386,-13.352
4.183,93.168,-12.619
4.200,93.051,-12.118
4.217,92.855,-11.316
4.233,92.761,-10.991
4.250,92.584,-10.254
4.267,92.499,-9.717
4.283,92.287,-9.045
4.300,92.221,-8.712
4.317,91.994,-8.266
4.333,91.887,-7.939
4.350,91.683,-7.727
4.367,91.587,-7.403
4.383,91.403,-7.185
4.400,91.327,-7.037
4.417,91.231,-6.901
4.433,91.171,-6.743
4.450,91.035,-6.798
4.467,90.981,-6.649
4.483,90.859,-6.706
4.500,90.810,-6.430
4.517,90.700,-6.341
4.533,90.656,-6.243
4.550,90.509,-6.163
4.567,90.460,-6.075
4.583,90.336,-6.033
4.600,90.233,-6.163
4.617,90.070,-6.151
4.633,89.986,-6.119
4.650,89.850,-6.108
4.667,89.774,-6.078
4.683,89.602,-6.069
4.700,89.533,-6.042
4.717,89.378,-6.033
4.733,89.316,-5.867
4.750,89.177,-5.830
4.767,89.121,-5.705
4.783,88.996,-5.493
4.800,88.945,-5.403
4.817,88.832,-5.237
4.833,88.787,-5.154
4.850,88.686,-4.975
4.867,88.645,-4.750
4.883,88.554,-4.414
4.900,88.517,-4.035
4.917,88.435,-3.702
4.933,88.402,-3.361
4.950,88.270,-3.005
4.967,88.240,-2.667
4.983,88.132,-2.411
5.000,88.115,-2.107
5.017,88.018,-2.086
5.033,88.062,-1.813
5.050,88.033,-1.794
5.067,88.082,-1.417
5.083,88.056,-1.368
5.100,88.119,-0.998
5.117,88.106,-0.954
5.133,88.142,-0.446
5.150,88.130,-0.407
5.167,88.092,0.159
5.183,88.081,0.014
5.200,88.047,0.523
5.217,88.081,0.249
5.233,88.061,0.445
5.250,88.102,0.015
5.267,88.084,0.159
5.283,88.121,-0.461
5.300,88.104,-0.396
5.317,88.185,-0.975
5.333,88.120,-0.594
5.350,88.193,-0.905
5.367,88.145,-0.562
5.383,88.181,-0.699
5.400,88.087,-0.044
5.417,88.110,-0.049
5.433,87.966,0.655
5.450,87.974,0.800
5.467,87.817,1.245
5.483,87.932,1.301
5.500,87.790,1.739
5.517,87.894,1.785
5.533,87.814,1.990
5.550,88.067,1.812
5.567,88.045,1.711
5.583,88.320,1.600
5.600,88.350,1.549
5.617,88.536,1.436
5.633,88.538,1.325
5.650,88.765,1.234
5.667,88.715,0.988
5.683,88.856,0.877
5.700,88.749,0.551
5.717,88.751,0.374
5.733,88.621,-0.398
5.750,88.626,-0.355
5.767,88.445,-1.227
5.783,88.416,-1.306
5.800,88.228,-1.903
5.817,88.262,-1.899
5.833,88.083,-2.249
5.850,88.078,-1.944
5.867,87.939,-1.739
5.883,87.934,-0.899
5.900,87.926,0.127
5.917,87.911,1.206
5.933,87.915,2.322
5.950,87.902,3.533
5.967,87.905,4.686
5.983,88.015,6.413
6.000,88.067,7.790
6.017,88.277,10.047
6.033,88.449,12.050
6.050,88.794,14.481
6.067,89.022,17.013
6.083,89.400,19.351
6.100,89.622,22.036
6.117,89.978,24.476
6.133,90.366,27.257
6.150,90.858,30.153
6.167,91.432,32.496
6.183,92.094,35.659
6.200,92.766,37.845
6.217,93.605,40.520
6.233,94.376,42.542
6.250,95.257,45.256
6.267,96.074,47.553
6.283,96.988,50.712
6.300,97.956,53.932
6.317,98.848,57.144
6.333,99.953,60.382
6.350,100.891,62.978
6.367,101.956,66.440
6.383,102.974,68.746
6.400,104.108,71.985
6.417,105.251,74.358
6.433,106.526,77.426
6.450,107.956,79.687
6.467,109.414,82.854
6.483,110.985,84.683
6.500,112.425,87.817
6.517,114.241,88.911
6.533,115.681,91.201
6.550,117.600,92.305
6.567,119.162,94.146
6.583,121.065,94.790
6.600,122.636,95.766
6.617,124.606,95.713
6.633,126.184,95.803
6.650,128.120,94.955
6.667,129.590,94.663
6.683,131.292,93.841
6.700,132.724,92.408
6.717,134.356,91.379
6.733,135.705,89.694
6.750,137.173,87.951
6.767,138.431,85.919
6.783,139.890,83.854
6.800,141.065,81.253
6.817,142.540,79.230
6.833,143.705,76.877
6.850,145.044,74.906
6.867,146.141,72.758
6.883,147.498,70.658
6.900,148.479,68.573
6.917,149.705,66.479
6.933,150.588,64.607
6.950,151.690,62.437
6.967,152.594,60.338
6.983,153.746,58.405
7.000,154.559,56.034
7.017,155.544,53.971
7.033,156.276,51.495
7.050,157.214,49.494
7.067,157.864,46.963
7.083,158.709,45.199
7.100,159.243,42.911
7.117,160.003,41.323
7.133,160.534,39.276
7.150,161.218,37.520
7.167,161.696,35.199
7.183,162.209,33.773
7.200,162.639,31.838
7.217,163.153,30.570
7.233,163.546,28.675
7.250,164.008,27.560
7.267,164.362,26.160
7.283,164.782,25.308
7.300,165.100,24.048
7.317,165.479,23.131
7.333,165.817,21.692
7.350,166.157,20.866
7.367,166.466,19.878
7.383,166.773,19.135
7.400,167.051,17.938
7.417,167.428,17.252
7.433,167.679,16.173
7.450,168.019,15.549
7.467,168.244,14.567
7.483,168.448,14.006
7.500,168.651,13.122
7.517,168.835,12.446
7.533,169.017,11.651
7.550,169.132,11.028
7.567,169.296,10.159
7.583,169.399,9.906
7.600,169.545,8.665
7.617,169.638,8.438
7.633,169.769,7.013
7.650,169.853,6.808
7.667,169.965,5.832
7.683,170.041,5.798
7.700,170.142,4.919
7.717,170.159,4.888
7.733,170.353,4.244
7.750,170.317,4.216
7.767,170.492,3.636
7.783,170.356,3.603
7.800,170.514,3.081
7.817,170.392,3.057
7.833,170.584,2.436
7.850,170.474,2.440
7.867,170.647,1.881
7.883,170.546,1.735
7.900,170.702,1.235
7.917,170.611,0.638
7.933,170.746,0.357
7.950,170.665,-0.330
7.967,170.788,-0.275
7.983,170.665,-0.893
8.000,170.779,-0.993
8.017,170.668,-1.699
8.033,170.721,-1.954
8.050,170.571,-2.590
8.067,170.566,-3.266
8.083,170.436,-3.968
8.100,170.382,-4.723
8.117,170.265,-5.666
8.133,170.216,-6.512
8.150,170.061,-7.538
8.167,170.017,-8.276
8.183,169.823,-9.651
8.200,169.783,-10.315
8.217,169.458,-11.580
8.233,169.379,-12.489
8.250,169.037,-13.712
8.267,168.857,-15.193
8.283,168.494,-16.607
8.300,168.275,-18.155
8.317,167.906,-19.720
8.333,167.562,-21.305
8.350,167.229,-23.199
8.367,166.860,-24.505
8.383,166.407,-26.516
8.400,165.995,-27.264
8.417,165.372,-29.147
8.433,164.846,-30.706
8.450,164.213,-32.253
8.467,163.643,-33.853
8.483,162.960,-35.672
8.500,162.284,-37.505
8.517,161.655,-38.745
8.533,160.945,-40.974
8.550,160.370,-42.144
8.567,159.663,-44.434
8.583,158.802,-45.497
8.600,158.106,-47.256
8.617,157.210,-48.330
8.633,156.385,-50.197
8.650,155.404,-51.484
8.667,154.647,-53.292
8.683,153.571,-54.531
8.700,152.812,-56.789
8.717,151.596,-58.230
8.733,150.829,-61.188
8.750,149.620,-62.598
8.767,148.736,-65.119
8.783,147.481,-66.675
8.800,146.482,-69.169
8.817,145.196,-70.473
8.833,144.107,-72.409
8.850,142.725,-74.125
8.867,141.535,-75.886
8.883,139.974,-77.463
8.900,138.797,-78.632
8.917,137.095,-80.386
8.933,135.881,-81.232
8.950,134.153,-82.408
8.967,132.894,-83.108
8.983,131.268,-83.695
9.000,129.938,-84.045
9.017,128.276,-84.428
9.033,126.991,-84.157
9.050,125.385,-83.768
9.067,124.034,-82.754
9.083,122.542,-82.129
9.100,121.267,-80.697
9.117,119.778,-79.844
9.133,118.583,-78.100
9.150,117.181,-77.290
9.167,115.964,-75.421
9.183,114.673,-74.272
9.200,113.612,-71.819
9.217,112.389,-70.693
9.233,111.421,-68.466
9.250,110.197,-67.176
9.267,109.267,-64.787
9.283,108.120,-63.412
9.300,107.130,-60.825
9.317,106.127,-59.385
9.333,105.181,-56.670
9.350,104.337,-54.704
9.367,103.427,-51.961
9.383,102.563,-50.004
9.400,101.642,-47.203
9.417,100.947,-45.401
9.433,100.129,-42.242
9.450,99.503,-40.319
9.467,98.788,-37.404
9.483,98.291,-35.417
9.500,97.730,-32.720
9.517,97.352,-30.796
9.533,96.944,-28.684
9.550,96.655,-26.617
9.567,96.287,-24.056
9.583,96.116,-22.032
9.600,95.827,-19.927
9.617,95.652,-17.978
9.633,95.325,-16.062
9.650,95.221,-14.369
9.667,94.916,-12.869
9.683,94.775,-11.737
9.700,94.555,-10.454
9.717,94.545,-9.848
9.733,94.298,-8.844
9.750,94.304,-8.302
9.767,94.137,-7.645
9.783,94.149,-7.140
9.800,93.999,-6.487
9.817,94.001,-5.990
9.833,93.817,-5.671
9.850,93.868,-5.215
9.867,93.662,-4.786
9.883,93.707,-4.782
9.900,93.520,-4.625
9.917,93.567,-4.478
9.933,93.447,-4.382
9.950,93.490,-4.534
9.967,93.328,-4.469
9.983,93.330,-4.606
10.000,93.178,-4.521
10.017,93.180,-4.500
10.033,92.961,-4.547
10.050,93.003,-4.406
10.067,92.806,-4.281
10.083,92.844,-4.151
10.100,92.625,-4.057
10.117,92.660,-4.209
10.133,92.463,-4.125
10.150,92.494,-4.102
10.167,92.317,-3.918
10.183,92.352,-3.877
10.200,92.193,-3.711
10.217,92.280,-3.428
10.233,92.136,-3.400
10.250,92.215,-3.144
10.267,92.044,-3.119
10.283,92.115,-2.768
10.300,91.961,-2.745
10.317,92.024,-2.429
10.333,91.886,-2.409
10.350,91.943,-1.997
10.367,91.818,-1.978
10.383,91.870,-1.608
10.400,91.757,-1.777
10.417,91.804,-1.423
10.433,91.703,-1.556
10.450,91.745,-0.922
10.467,91.654,-0.986
10.483,91.691,-0.571
10.500,91.652,-0.589
10.517,91.693,0.042
10.533,91.657,0.203
10.550,91.687,0.811
10.567,91.662,0.990
10.583,91.696,1.188
10.600,91.737,0.986
10.617,91.786,1.126
10.633,91.770,0.759
10.650,91.828,0.328
10.667,91.900,0.062
10.683,92.011,-0.685
10.700,92.088,-0.894
10.717,92.200,-1.276
10.733,92.154,-1.444
10.750,92.132,-1.931
10.767,92.078,-1.956
10.783,91.998,-2.609
10.800,91.763,-2.687
10.817,91.712,-3.268
10.833,91.423,-3.255
10.850,91.394,-3.861
10.867,91.232,-3.848
10.883,91.206,-4.284
10.900,91.018,-4.203
10.917,91.044,-3.911
10.933,90.867,-2.944
10.950,90.890,-2.448
10.967,90.681,-1.078
10.983,90.743,0.219
11.000,90.613,1.792
11.017,90.728,3.356
11.033,90.660,5.054
11.050,90.799,6.468
11.067,90.850,8.315
11.083,91.151,9.939
11.100,91.262,11.743
11.117,91.638,13.179
11.133,91.836,15.001
11.150,92.309,17.177
11.167,92.542,18.957
11.183,93.079,21.267
11.200,93.388,23.009
11.217,93.978,25.455
11.233,94.332,26.976
11.250,94.959,29.237
11.267,95.260,30.538
11.283,95.891,32.750
11.300,96.407,34.076
11.317,97.062,36.306
11.333,97.702,37.680
11.350,98.397,39.941
11.367,99.145,41.866
11.383,99.791,44.922
11.400,100.595,46.803
11.417,101.330,49.987
11.433,102.179,52.379
11.450,102.997,55.927
11.467,103.938,58.949
11.483,104.869,62.051
11.500,105.856,65.010
11.517,107.035,67.770
11.533,108.362,70.610
11.550,109.578,73.224
11.567,110.994,76.135
11.583,112.418,78.579
11.600,113.902,81.226
11.617,115.540,83.534
11.633,117.090,85.626
11.650,118.731,87.171
11.667,120.292,88.746
11.683,121.934,89.694
11.700,123.553,90.265
11.717,125.169,90.026
11.733,126.789,90.373
11.750,128.406,89.544
11.767,130.023,88.842
11.783,131.539,87.794
11.800,132.995,86.093
11.817,134.451,84.962
11.833,135.754,83.060
11.850,137.123,81.546
11.867,138.371,79.339
11.883,139.703,77.638
11.900,140.842,75.412
11.917,142.032,73.395
11.933,143.167,70.903
11.950,144.238,68.607
11.967,145.411,66.508
11.983,146.418,64.461
12.000,147.474,62.296
12.017,148.380,60.630
12.033,149.433,58.515
12.050,150.306,56.789
12.067,151.253,54.585
12.083,152.040,53.137
12.100,152.892,51.181
12.117,153.708,49.550
12.133,154.482,47.789
12.150,155.216,45.865
12.167,155.964,44.151
12.183,156.628,42.420
12.200,157.300,40.877
12.217,157.898,39.012
12.233,158.554,37.450
12.250,159.092,35.468
12.267,159.683,34.062
12.283,160.167,32.278
12.300,160.699,30.707
12.317,161.135,29.082
12.333,161.614,27.668
12.350,162.006,26.355
12.367,162.437,25.074
12.383,162.790,23.738
12.400,163.076,22.585
12.417,163.394,21.229
12.433,163.651,20.190
12.450,163.944,19.273
12.467,164.176,18.338
12.483,164.439,17.341
12.500,164.749,16.352
12.517,164.986,15.466
12.533,165.213,14.404
12.550,165.426,13.453
12.567,165.631,12.344
12.583,165.822,11.639
12.600,166.108,10.620
12.617,166.280,9.812
12.633,166.480,8.720
12.650,166.586,7.838
12.667,166.769,6.862
12.683,166.807,5.596
12.700,166.921,4.725
12.717,166.904,3.434
12.733,166.956,2.047
12.750,166.934,0.133
12.767,166.922,-1.836
12.783,166.851,-4.339
12.800,166.789,-6.585
12.817,166.726,-9.287
12.833,166.614,-11.339
12.850,166.560,-13.532
12.867,166.358,-15.534
12.883,166.108,-17.680
12.900,165.675,-19.403
12.917,165.211,-21.434
12.933,164.661,-23.521
12.950,164.085,-25.533
12.967,163.384,-27.907
12.983,162.806,-30.747
13.000,162.258,-33.492
13.017,161.629,-37.088
13.033,161.028,-40.126
13.050,160.437,-43.402
13.067,159.811,-46.192
13.083,159.093,-48.629
13.100,158.411,-50.608
13.117,157.548,-52.818
13.133,156.539,-54.938
13.150,155.562,-56.941
13.167,154.252,-58.718
13.183,153.185,-61.052
13.200,151.890,-62.432
13.217,150.711,-64.591
13.233,149.465,-65.824
13.250,148.341,-67.958
13.267,147.055,-68.838
13.283,145.773,-70.794
13.300,144.404,-71.473
13.317,143.233,-72.669
13.333,141.908,-73.266
13.350,140.819,-73.099
13.367,139.497,-73.756
13.383,138.496,-73.308
13.400,137.158,-73.610
13.417,136.147,-72.865
13.433,134.813,-73.095
13.450,133.724,-72.456
13.467,132.316,-72.175
13.483,131.140,-71.768
13.500,129.885,-71.878
13.517,128.600,-71.453
13.533,127.454,-71.882
13.550,126.174,-71.199
13.567,125.177,-71.708
13.583,123.976,-70.751
13.600,122.903,-70.859
13.617,121.714,-69.874
13.633,120.481,-69.532
13.650,119.274,-68.294
13.667,118.090,-67.806
13.683,116.858,-66.986
13.700,115.764,-65.848
13.717,114.593,-64.905
13.733,113.575,-63.314
13.750,112.528,-62.859
13.767,111.521,-61.266
13.783,110.547,-60.466
13.800,109.552,-58.841
13.817,108.538,-57.591
13.833,107.557,-55.636
13.850,106.650,-54.432
13.867,105.819,-52.081
13.883,105.070,-50.912
13.900,104.224,-48.490
13.917,103.555,-47.366
13.933,102.748,-45.052
13.950,102.101,-43.800
13.967,101.284,-41.402
13.983,100.729,-40.176
14.000,99.946,-37.610
14.017,99.498,-35.983
14.033,98.793,-33.799
14.050,98.429,-32.309
14.067,97.786,-30.572
14.083,97.510,-28.777
14.100,96.921,-27.372
14.117,96.746,-25.648
14.133,96.160,-24.433
14.150,96.002,-22.608
14.167,95.562,-21.597
14.183,95.384,-19.953
14.200,95.050,-19.166
14.217,94.879,-17.686
14.233,94.631,-17.072
14.250,94.431,-15.867
14.267,94.199,-15.329
14.283,93.956,-14.346
14.300,93.748,-14.261
14.317,93.530,-13.180
14.333,93.295,-13.104
14.350,93.109,-12.189
14.367,92.898,-11.947
14.383,92.739,-11.307
14.400,92.497,-11.060
14.417,92.400,-10.642
14.433,92.140,-10.389
14.450,91.992,-9.987
14.467,91.766,-9.464
14.483,91.634,-9.101
14.500,91.500,-8.603
14.517,91.402,-8.137
14.533,91.281,-7.895
14.550,91.193,-7.448
14.567,91.084,-7.256
14.583,90.968,-6.697
14.600,90.870,-6.664
14.617,90.802,-6.032
14.633,90.714,-5.822
14.650,90.662,-5.279
14.667,90.583,-5.089
14.683,90.477,-4.809
14.700,90.415,-4.735
14.717,90.320,-4.482
14.733,90.265,-4.415
14.750,90.179,-4.188
14.767,90.129,-4.160
14.783,90.052,-3.956
14.800,90.007,-4.041
14.817,89.937,-3.857
14.833,89.897,-3.962
14.850,89.823,-3.797
14.867,89.787,-3.714
14.883,89.721,-3.593
14.900,89.688,-3.518
14.917,89.581,-3.409
14.933,89.551,-3.342
14.950,89.455,-3.244
14.967,89.428,-3.183
14.983,89.342,-3.095
15.000,89.318,-3.041
15.017,89.240,-3.071
15.033,89.218,-2.990
15.050,89.148,-3.018
15.067,89.128,-2.944
15.083,89.065,-2.820
15.100,89.048,-2.611
15.117,88.991,-2.499
15.133,88.975,-2.310
15.150,88.924,-2.210
15.167,88.873,-2.040
15.183,88.827,-1.950
15.200,88.781,-1.797
15.217,88.739,-1.747
15.233,88.748,-1.610
15.250,88.711,-1.565
15.267,88.718,-1.474
15.283,88.685,-1.433
15.300,88.692,-1.351
15.317,88.661,-1.315
15.333,88.668,-1.241
15.350,88.640,-1.250
15.367,88.635,-1.183
15.383,88.611,-1.191
15.400,88.607,-1.131
15.417,88.574,-1.111
15.433,88.570,-1.057
15.450,88.540,-1.039
15.467,88.537,-0.990
15.483,88.510,-1.124
15.500,88.456,-0.964
15.517,88.432,-1.077
15.533,88.384,-1.001
15.550,88.362,-1.071
15.567,88.378,-0.867
15.583,88.358,-0.931
15.600,88.372,-0.644
15.617,88.355,-0.701
15.633,88.317,-0.764
15.650,88.340,-0.789
15.667,88.308,-0.846
15.683,88.307,-0.715
15.700,88.278,-0.586
15.717,88.322,-0.588
15.733,88.296,-0.336
15.750,88.359,-0.333
15.767,88.336,-0.190
15.783,88.286,0.143
15.800,88.274,0.051
15.817,88.228,0.100
15.833,88.218,0.018
15.850,88.237,0.346
15.867,88.188,0.449
15.883,88.251,0.811
15.900,88.267,0.834
15.917,88.295,1.339
15.933,88.420,1.288
15.950,88.372,1.417
15.967,88.350,1.978
15.983,88.346,2.065
16.000,88.424,2.754
16.017,88.457,2.503
16.033,88.549,3.126
16.050,88.600,3.159
16.067,88.742,4.238
16.083,88.789,4.647
16.100,88.808,6.187
16.117,88.945,6.488
16.133,88.962,8.341
16.150,89.146,9.664
16.167,89.052,11.420
16.183,89.279,13.050
16.200,89.241,15.143
16.217,89.663,17.035
16.233,89.816,19.287
16.250,90.357,21.681
16.267,90.583,24.115
16.283,91.152,26.850
16.300,91.572,29.061
16.317,92.153,31.936
16.333,92.774,33.897
16.350,93.504,37.018
16.367,94.227,38.908
16.383,95.029,42.084
16.400,95.969,43.545
16.417,96.827,46.144
16.433,97.758,48.440
16.450,98.632,51.247
16.467,99.608,54.162
16.483,100.445,56.588
16.500,101.391,59.946
16.517,102.248,62.170
16.533,103.269,65.529
16.550,104.178,67.799
16.567,105.197,71.987
16.583,106.504,74.004
16.600,107.665,78.199
16.617,109.206,80.131
16.633,110.434,84.053
16.650,112.135,85.975
16.667,113.497,89.679
16.683,115.347,91.831
16.700,116.827,95.028
16.717,119.025,96.928
16.733,120.637,99.390
16.750,122.893,100.963
16.767,124.469,102.172
16.783,126.650,102.568
16.800,128.266,102.996
16.817,130.338,102.969
16.833,132.002,102.414
16.850,133.924,101.766
16.867,135.578,100.459
16.883,137.308,99.270
16.900,138.851,96.639
16.917,140.561,94.585
16.933,141.854,91.528
16.950,143.538,86.803
16.967,144.757,80.259
16.983,146.273,75.411
17.000,147.419,69.194
17.017,148.834,64.203
17.033,149.917,58.436
17.050,151.238,53.474
