# Time (s),Ang (°),Vel (°/s)
0.000,167.490,-7.396
0.040,166.745,-10.088
0.080,167.415,-14.424
0.120,166.675,-18.326
0.160,166.660,-23.551
0.200,165.429,-28.036
0.240,164.510,-33.103
0.280,162.307,-37.647
0.320,160.692,-42.867
0.360,158.091,-48.021
0.400,155.750,-54.282
0.440,152.615,-57.752
0.480,149.923,-62.826
0.520,146.883,-65.700
0.560,144.157,-69.202
0.600,141.025,-70.319
0.640,137.933,-72.797
0.680,134.846,-73.181
0.720,132.024,-74.001
0.760,128.964,-72.939
0.800,126.009,-72.493
0.840,122.989,-70.882
0.880,120.116,-69.642
0.920,117.014,-66.497
0.960,114.183,-63.465
1.000,111.349,-59.223
1.040,108.851,-55.548
1.080,106.427,-50.147
1.120,104.354,-45.609
1.160,102.371,-39.587
1.200,101.127,-34.216
1.240,99.854,-27.306
1.280,99.312,-21.541
1.320,98.695,-14.006
1.360,98.876,-7.684
1.400,98.643,0.732
1.440,99.237,7.316
1.480,99.586,15.555
1.520,100.630,21.564
1.560,101.258,28.695
1.600,102.946,33.814
1.640,104.240,39.713
1.680,106.866,43.156
1.720,108.744,48.163
1.760,111.704,50.535
1.800,114.065,53.926
1.840,117.070,55.152
1.880,119.601,57.507
1.920,122.523,57.059
1.960,124.770,57.664
2.000,127.541,54.568
2.040,129.558,53.202
2.080,131.942,48.047
2.120,133.721,44.605
2.160,135.762,37.281
2.200,137.181,32.195
2.240,138.839,23.733
2.280,139.607,18.140
2.320,140.664,9.889
2.360,140.533,4.001
2.400,140.828,-3.927
2.440,139.439,-9.610
2.480,138.918,-17.377
2.520,136.763,-23.048
2.560,135.654,-30.136
2.600,133.474,-34.980
2.640,131.959,-41.261
2.680,129.586,-44.592
2.720,127.955,-49.659
2.760,125.336,-51.132
2.800,123.352,-54.723
2.840,120.757,-54.809
2.880,118.619,-56.939
2.920,115.908,-56.510
2.960,113.778,-57.214
3.000,111.033,-55.998
3.040,108.760,-54.760
3.080,106.084,-52.182
3.120,103.878,-49.499
3.160,101.490,-45.848
3.200,99.568,-41.573
3.240,97.630,-37.001
3.280,95.987,-32.154
3.320,95.099,-26.687
3.360,94.027,-20.357
3.400,93.653,-14.886
3.440,93.248,-8.168
3.480,93.675,-2.000
3.520,93.707,4.779
3.560,94.485,11.485
3.600,95.021,18.834
3.640,96.546,24.801
3.680,97.152,31.195
3.720,98.977,36.289
3.760,100.290,41.869
3.800,102.435,45.606
3.840,104.521,50.088
3.880,107.287,52.864
3.920,109.979,55.985
3.960,112.744,56.989
4.000,115.426,59.531
4.040,118.370,59.504
4.080,121.039,60.462
4.120,123.760,59.365
4.160,126.204,57.702
4.200,128.612,54.135
4.240,130.739,49.728
4.280,132.871,44.430
4.320,134.680,38.614
4.360,136.567,32.197
4.400,138.054,25.281
4.440,139.142,18.163
4.480,139.768,11.249
4.520,139.816,3.984
4.560,139.402,-2.742
4.600,138.594,-9.767
4.640,137.688,-16.583
4.680,136.207,-23.422
4.720,134.658,-29.884
4.760,132.953,-35.473
4.800,131.002,-40.813
4.840,129.093,-45.099
4.880,127.011,-48.977
4.920,124.730,-51.997
4.960,122.514,-55.187
5.000,120.124,-56.765
5.040,117.859,-58.311
5.080,115.280,-58.937
5.120,112.756,-58.983
5.160,110.016,-58.674
5.200,107.396,-57.318
5.240,104.576,-54.587
5.280,102.148,-51.915
5.320,99.671,-48.092
5.360,97.591,-44.267
5.400,95.612,-39.244
5.440,93.889,-33.935
5.480,92.620,-28.280
5.520,91.978,-22.387
5.560,91.365,-15.489
5.600,91.269,-9.613
5.640,91.299,-2.822
5.680,91.734,3.684
5.720,92.395,10.766
5.760,93.048,17.217
5.800,93.963,24.121
5.840,95.282,29.615
5.880,96.381,35.355
5.920,97.978,40.064
5.960,99.801,45.156
6.000,102.072,48.758
6.040,104.219,52.636
6.080,107.092,55.444
6.120,109.747,58.392
6.160,112.578,59.451
6.200,115.307,61.656
6.240,118.392,61.865
6.280,120.989,62.398
6.320,123.977,60.479
6.360,126.314,59.497
6.400,128.999,55.550
6.440,130.953,52.403
6.480,133.374,47.443
6.520,135.097,43.045
6.560,137.240,35.682
6.600,138.359,30.338
6.640,139.917,22.191
6.680,140.423,16.117
6.720,141.189,7.851
6.760,141.044,1.957
6.800,141.134,-6.062
6.840,139.801,-11.900
6.880,139.192,-19.892
6.920,137.291,-24.960
6.960,135.985,-32.273
7.000,133.709,-36.631
7.040,132.127,-42.735
7.080,129.737,-46.225
7.120,127.957,-51.060
7.160,125.304,-52.387
7.200,123.383,-55.994
7.240,120.554,-56.524
7.280,118.444,-58.680
7.320,115.548,-57.955
7.360,113.309,-58.892
7.400,110.498,-57.362
7.440,108.369,-57.017
7.480,105.596,-53.555
7.520,103.377,-52.108
7.560,100.777,-47.418
7.600,98.936,-44.759
7.640,96.792,-39.350
7.680,95.320,-35.301
7.720,93.747,-29.683
7.760,93.171,-25.267
7.800,92.119,-18.963
7.840,92.103,-13.745
7.880,91.589,-7.303
7.920,91.938,-1.659
7.960,92.128,5.089
8.000,92.688,11.147
8.040,93.209,17.546
8.080,94.218,23.216
8.120,95.130,29.527
8.160,96.395,34.428
8.200,97.941,39.919
8.240,99.846,44.215
8.280,102.008,48.848
8.320,104.274,52.493
8.360,107.101,56.073
8.400,109.835,58.258
8.440,112.759,60.625
8.480,115.540,61.876
8.520,118.468,62.860
8.560,121.437,62.105
8.600,124.184,61.221
8.640,126.853,58.718
8.680,129.173,55.379
8.720,131.505,50.417
8.760,133.520,45.548
8.800,135.656,38.848
8.840,137.109,32.866
8.880,138.740,24.842
8.920,139.505,17.958
8.960,140.328,10.396
9.000,140.085,3.667
9.040,140.088,-3.575
9.080,138.849,-10.364
9.120,138.187,-17.703
9.160,136.342,-24.134
9.200,134.959,-30.830
9.240,133.090,-36.145
9.280,131.373,-41.575
9.320,129.361,-45.358
9.360,127.302,-49.553
9.400,125.034,-51.869
9.440,122.628,-54.771
9.480,120.242,-55.827
9.520,117.817,-57.026
9.560,115.383,-57.362
9.600,112.870,-57.199
9.640,110.357,-56.983
9.680,107.727,-54.937
9.720,105.324,-53.140
9.760,102.846,-49.805
9.800,100.744,-46.734
9.840,98.673,-42.385
9.880,97.053,-38.150
9.920,95.171,-32.926
9.960,94.340,-28.357
10.000,93.150,-22.321
10.040,92.746,-17.000
10.080,92.202,-10.705
10.120,92.386,-5.200
10.160,92.493,1.866
10.200,93.114,7.375
10.240,93.342,14.801
10.280,94.335,20.265
10.320,95.124,26.895
10.360,96.423,31.761
10.400,97.623,37.532
10.440,99.792,41.462
10.480,101.479,46.137
10.520,104.051,48.965
10.560,106.499,53.074
10.600,109.287,55.178
10.640,111.802,58.031
10.680,114.721,59.248
10.720,117.264,60.931
10.760,120.175,60.291
10.800,122.493,60.719
10.840,125.187,58.673
10.880,127.441,56.781
10.920,129.943,52.134
10.960,131.972,47.942
11.000,134.182,43.077
11.040,135.967,38.840
11.080,137.910,33.987
